File: XRD_read.inputs_1D.csv
# q (Angstrom^-1), I (counts)
0.602623,759.652
0.625232,770.03
0.647841,758.746
0.67045,761.495
0.693059,758.649
0.715668,751.458
0.738277,748.508
0.760886,743.399
0.783495,743.413
0.806104,735.745
0.828713,731.15
0.851322,729.836
0.873931,725.821
0.89654,724.553
0.919149,718.937
0.941758,717.159
0.964367,711.888
0.986976,710.427
1.00958,705.318
1.03219,699.501
1.0548,698.899
1.07741,695.439
1.10002,691.544
1.12263,689.178
1.14524,688.318
1.16785,683.102
1.19046,681.691
1.21307,676.116
1.23567,673.827
1.25828,671.047
1.28089,667.753
1.3035,665.019
1.32611,661.447
1.34872,656.277
1.37133,654.992
1.39394,652.035
1.41655,649.702
1.43915,646.219
1.46176,642.495
1.48437,639.91
1.50698,637.006
1.52959,634.749
1.5522,631.819
1.57481,629.123
1.59742,627.608
1.62003,624.888
1.64264,623.428
1.66524,622.57
1.68785,622.373
1.71046,619.17
1.73307,618.338
1.75568,618.557
1.77829,617.875
1.8009,618.282
1.82351,619.361
1.84612,620.731
1.86872,622.621
1.89133,625.365
1.91394,628.805
1.93655,630.724
1.95916,634.4
1.98177,638.236
2.00438,641.722
2.02699,645.696
2.0496,649.997
2.07221,653.453
2.09481,659.684
2.11742,666.026
2.14003,670.636
2.16264,681.173
2.18525,689.543
2.20786,705.77
2.23047,723.525
2.25308,747.992
2.27569,777.914
2.29829,812.692
2.3209,852.643
2.34351,906.473
2.36612,981.035
2.38873,1095.8
2.41134,1291.19
2.43395,1570.89
2.45656,1801.82
2.47917,1807.28
2.50178,1657.32
2.52438,1435.79
2.54699,1247.06
2.5696,1125.18
2.59221,1043.82
2.61482,979.536
2.63743,925.774
2.66004,880.669
2.68265,840.707
2.70526,806.196
2.72787,774.923
2.75047,749.614
2.77308,727.652
2.79569,706.838
2.8183,691.465
2.84091,672.807
2.86352,658.188
2.88613,647.031
2.90874,635.903
2.93135,625.485
2.95395,616.855
2.97656,610.525
2.99917,603.722
3.02178,598.49
3.04439,592.145
3.067,588.99
3.08961,585.598
3.11222,583.428
3.13483,582.139
3.15744,580.671
3.18004,580.368
3.20265,579.607
3.22526,579.167
3.24787,580.548
3.27048,582.054
3.29309,585.433
3.3157,586.976
3.33831,590.995
3.36092,594.744
3.38352,598.504
3.40613,604.995
3.42874,612.592
3.45135,621.933
3.47396,626.669
3.49657,624.185
3.51918,613.617
3.54179,602.415
3.5644,593.024
3.58701,587.052
3.60961,581.759
3.63222,578.542
3.65483,574.101
3.67744,572.285
3.70005,571.27
3.72266,571.293
3.74527,570.875
3.76788,570.833
3.79049,571.497
3.81309,572.137
3.8357,574.052
3.85831,575.66
3.88092,578.125
3.90353,580.715
3.92614,586.281
3.94875,589.624
3.97136,593.926
3.99397,595.956
4.01658,598.683
4.03918,602.254
4.06179,605.088
4.0844,607.724
4.10701,610.619
4.12962,615.657
4.15223,621.05
4.17484,629.673
4.19745,643.493
4.22006,664.66
4.24267,695.607
4.26527,725.794
4.28788,736.84
4.31049,716.053
4.3331,681.383
4.35571,645.525
4.37832,621.318
4.40093,600.733
4.42354,590.609
4.44615,579.938
4.46875,573.585
4.49136,568.886
4.51397,565.696
4.53658,560.284
4.55919,558.008
4.5818,558.394
4.60441,558.287
4.62702,562.021
4.64963,562.555
4.67224,559.327
4.69484,550.251
4.71745,541.496
4.74006,536.132
4.76267,533.054
4.78528,532.616
4.80789,534.43
4.8305,538.711
4.85311,545.508
4.87572,554.079
4.89832,562.985
4.92093,566.849
4.94354,563.819
4.96615,550.739
4.98876,534.775
5.01137,519.568
5.03398,508.398
5.05659,499.927
5.0792,494.143
5.10181,491.618
5.12441,488.556
5.14702,486.254
5.16963,485.99
5.19224,485.462
5.21485,484.436
5.23746,486.324
5.26007,486.124
5.28268,487.359
5.30529,487.943
5.32789,489.471
5.3505,490.654
5.37311,493.066
5.39572,498.765
5.41833,502.109
5.44094,507.995
5.46355,512.844
5.48616,517.267
5.50877,518.87
5.53138,519.839
5.55398,519.308
5.57659,521.082
5.5992,523.468
5.62181,527.332
5.64442,531.285
5.66703,537.878
5.68964,545.635
5.71225,554.578
5.73486,564.549
5.75747,574.019
5.78007,585.464
5.80268,595.543
5.82529,609.28
5.8479,616.254